#Acq. time (s)=	0.5
#Accumulations=	2
#Range (nm)=	400...600
#Windows=	2
#Auto scanning=	Off
#Autofocus=	Off
#SWIFT=	Off
#Macrospot=	Off
#AutoExposure=	Off
#Spike filter=	Multiple accum.
#Delay time (s)=	0
#Binning=	1
#Readout mode=	Signal
#DeNoise=	Off
#ICS correction=	On
#Dark correction=	Off
#Inst. Process=	Off
#Detector Gain=	High Sensitivity
#Detector ADC=	20 kHz       
#Detector temperature (°C)=	-75.07
#Instrument=	LabRAM HR Evol
#Detector=	Synapse BIDD
#Objective=	x10
#Grating=	300 gr/mm
#ND Filter=	1%
#Laser (nm)=	405 
#Hole=	100.021
#Temperature=	0
#Range=	Auto
#Laser Pol.=	No
#Raman. Pol.=	No
#Laser Pol. (°)=	0
#Raman Pol. (°)=	0.008
#StageXY=	Marzhauser
#StageZ=	Marzhauser
#X (µm)=	115.15
#Y (µm)=	-159
#Z (µm)=	147.55
#Full time(mm:ss)=	1:09
#Project=	
#Sample=	3min CF4 100um holes apart
#Site=	
#Title=	xBr75_2
#Remark=	
#Date=	28.06.2021 19:43
#Acquired=	28.06.2021 19:43:44
	400.053	400.16	400.267	400.375	400.482	400.589	400.696	400.803	400.911	401.018	401.125	401.232	401.34	401.447	401.554	401.661	401.768	401.876	401.983	402.09	402.197	402.305	402.412	402.519	402.626	402.733	402.841	402.948	403.055	403.162	403.269	403.377	403.484	403.591	403.698	403.806	403.913	404.02	404.127	404.234	404.342	404.449	404.556	404.663	404.77	404.878	404.985	405.092	405.199	405.306	405.414	405.521	405.628	405.735	405.842	405.95	406.057	406.164	406.271	406.378	406.486	406.593	406.7	406.807	406.914	407.022	407.129	407.236	407.343	407.45	407.558	407.665	407.772	407.879	407.986	408.094	408.201	408.308	408.415	408.522	408.63	408.737	408.844	408.951	409.058	409.165	409.273	409.38	409.487	409.594	409.701	409.809	409.916	410.023	410.13	410.237	410.344	410.452	410.559	410.666	410.773	410.88	410.988	411.095	411.202	411.309	411.416	411.523	411.631	411.738	411.845	411.952	412.059	412.167	412.274	412.381	412.488	412.595	412.702	412.81	412.917	413.024	413.131	413.238	413.345	413.453	413.56	413.667	413.774	413.881	413.988	414.096	414.203	414.31	414.417	414.524	414.631	414.739	414.846	414.953	415.06	415.167	415.274	415.382	415.489	415.596	415.703	415.81	415.917	416.024	416.132	416.239	416.346	416.453	416.56	416.667	416.775	416.882	416.989	417.096	417.203	417.31	417.417	417.525	417.632	417.739	417.846	417.953	418.06	418.168	418.275	418.382	418.489	418.596	418.703	418.81	418.918	419.025	419.132	419.239	419.346	419.453	419.56	419.668	419.775	419.882	419.989	420.096	420.203	420.31	420.418	420.525	420.632	420.739	420.846	420.953	421.06	421.168	421.275	421.382	421.489	421.596	421.703	421.81	421.917	422.025	422.132	422.239	422.346	422.453	422.56	422.667	422.774	422.882	422.989	423.096	423.203	423.31	423.417	423.524	423.631	423.739	423.846	423.953	424.06	424.167	424.274	424.381	424.488	424.596	424.703	424.81	424.917	425.024	425.131	425.238	425.345	425.452	425.56	425.667	425.774	425.881	425.988	426.095	426.202	426.309	426.417	426.524	426.631	426.738	426.845	426.952	427.059	427.166	427.273	427.38	427.488	427.595	427.702	427.809	427.916	428.023	428.13	428.237	428.344	428.452	428.559	428.666	428.773	428.88	428.987	429.094	429.201	429.308	429.415	429.522	429.63	429.737	429.844	429.951	430.058	430.165	430.272	430.379	430.486	430.593	430.701	430.808	430.915	431.022	431.129	431.236	431.343	431.45	431.557	431.664	431.771	431.878	431.986	432.093	432.2	432.307	432.414	432.521	432.628	432.735	432.842	432.949	433.056	433.163	433.271	433.378	433.485	433.592	433.699	433.806	433.913	434.02	434.127	434.234	434.341	434.448	434.555	434.662	434.77	434.877	434.984	435.091	435.198	435.305	435.412	435.519	435.626	435.733	435.84	435.947	436.054	436.161	436.268	436.376	436.483	436.59	436.697	436.804	436.911	437.018	437.125	437.232	437.339	437.446	437.553	437.66	437.767	437.874	437.981	438.088	438.195	438.303	438.41	438.517	438.624	438.731	438.838	438.945	439.052	439.159	439.266	439.373	439.48	439.587	439.694	439.801	439.908	440.015	440.122	440.229	440.336	440.443	440.551	440.658	440.765	440.872	440.979	441.086	441.193	441.3	441.407	441.514	441.621	441.728	441.835	441.942	442.049	442.156	442.263	442.37	442.477	442.584	442.691	442.798	442.905	443.012	443.119	443.226	443.333	443.44	443.547	443.654	443.761	443.868	443.976	444.083	444.19	444.297	444.404	444.511	444.618	444.725	444.832	444.939	445.046	445.153	445.26	445.367	445.474	445.581	445.688	445.795	445.902	446.009	446.116	446.223	446.33	446.437	446.544	446.651	446.758	446.865	446.972	447.079	447.186	447.293	447.4	447.507	447.614	447.721	447.828	447.935	448.042	448.149	448.256	448.363	448.47	448.577	448.684	448.791	448.898	449.005	449.112	449.219	449.326	449.433	449.54	449.647	449.754	449.861	449.968	450.075	450.182	450.289	450.396	450.503	450.61	450.717	450.824	450.931	451.038	451.145	451.252	451.359	451.466	451.573	451.68	451.787	451.894	452.001	452.108	452.215	452.322	452.429	452.536	452.642	452.749	452.856	452.963	453.07	453.177	453.284	453.391	453.498	453.605	453.712	453.819	453.926	454.033	454.14	454.247	454.354	454.461	454.568	454.675	454.782	454.889	454.996	455.103	455.21	455.317	455.424	455.531	455.638	455.745	455.852	455.958	456.065	456.172	456.279	456.386	456.493	456.6	456.707	456.814	456.921	457.028	457.135	457.242	457.349	457.456	457.563	457.67	457.777	457.884	457.991	458.098	458.204	458.311	458.418	458.525	458.632	458.739	458.846	458.953	459.06	459.167	459.274	459.381	459.488	459.595	459.702	459.809	459.915	460.022	460.129	460.236	460.343	460.45	460.557	460.664	460.771	460.878	460.985	461.092	461.199	461.306	461.413	461.519	461.626	461.733	461.84	461.947	462.054	462.161	462.268	462.375	462.482	462.589	462.696	462.803	462.909	463.016	463.123	463.23	463.337	463.444	463.551	463.658	463.765	463.872	463.979	464.086	464.192	464.299	464.406	464.513	464.62	464.727	464.834	464.941	465.048	465.155	465.262	465.368	465.475	465.582	465.689	465.796	465.903	466.01	466.117	466.224	466.331	466.437	466.544	466.651	466.758	466.865	466.972	467.079	467.186	467.293	467.399	467.506	467.613	467.72	467.827	467.934	468.041	468.148	468.255	468.361	468.468	468.575	468.682	468.789	468.896	469.003	469.11	469.217	469.323	469.43	469.537	469.644	469.751	469.858	469.965	470.072	470.178	470.285	470.392	470.499	470.606	470.713	470.82	470.927	471.033	471.14	471.247	471.354	471.461	471.568	471.675	471.781	471.888	471.995	472.102	472.209	472.316	472.423	472.53	472.636	472.743	472.85	472.957	473.064	473.171	473.278	473.384	473.491	473.598	473.705	473.812	473.919	474.026	474.132	474.239	474.346	474.453	474.56	474.667	474.773	474.88	474.987	475.094	475.201	475.308	475.415	475.521	475.628	475.735	475.842	475.949	476.056	476.162	476.269	476.376	476.483	476.59	476.697	476.803	476.91	477.017	477.124	477.231	477.338	477.444	477.551	477.658	477.765	477.872	477.979	478.085	478.192	478.299	478.406	478.513	478.62	478.726	478.833	478.94	479.047	479.154	479.26	479.367	479.474	479.581	479.688	479.795	479.901	480.008	480.115	480.222	480.329	480.435	480.542	480.649	480.756	480.863	480.969	481.076	481.183	481.29	481.397	481.503	481.61	481.717	481.824	481.931	482.038	482.144	482.251	482.358	482.465	482.572	482.678	482.785	482.892	482.999	483.105	483.212	483.319	483.426	483.533	483.639	483.746	483.853	483.96	484.067	484.173	484.28	484.387	484.494	484.601	484.707	484.814	484.921	485.028	485.134	485.241	485.348	485.455	485.562	485.668	485.775	485.882	485.989	486.095	486.202	486.309	486.416	486.523	486.629	486.736	486.843	486.95	487.056	487.163	487.27	487.377	487.483	487.59	487.697	487.804	487.911	488.017	488.124	488.231	488.338	488.444	488.551	488.658	488.765	488.871	488.978	489.085	489.192	489.298	489.405	489.512	489.619	489.725	489.832	489.939	490.046	490.152	490.259	490.366	490.473	490.579	490.686	490.793	490.9	491.006	491.113	491.22	491.327	491.433	491.54	491.647	491.754	491.86	491.967	492.074	492.181	492.287	492.394	492.501	492.607	492.714	492.821	492.928	493.034	493.141	493.248	493.355	493.461	493.568	493.675	493.781	493.888	493.995	494.102	494.208	494.315	494.422	494.529	494.635	494.742	494.849	494.955	495.062	495.169	495.276	495.382	495.489	495.596	495.702	495.809	495.916	496.022	496.129	496.236	496.343	496.449	496.556	496.663	496.769	496.876	496.983	497.09	497.196	497.303	497.41	497.516	497.623	497.73	497.836	497.943	498.05	498.157	498.263	498.37	498.477	498.583	498.69	498.797	498.903	499.01	499.117	499.223	499.33	499.437	499.543	499.65	499.757	499.864	499.97	500.077	500.184	500.29	500.397	500.504	500.61	500.717	500.824	500.93	501.037	501.144	501.25	501.357	501.464	501.57	501.677	501.784	501.89	501.997	502.104	502.21	502.317	502.424	502.53	502.637	502.744	502.85	502.957	503.064	503.17	503.277	503.384	503.49	503.597	503.704	503.81	503.917	504.024	504.13	504.237	504.344	504.45	504.557	504.664	504.77	504.877	504.983	505.09	505.197	505.303	505.41	505.517	505.623	505.73	505.837	505.943	506.05	506.157	506.263	506.37	506.476	506.583	506.69	506.796	506.903	507.01	507.116	507.223	507.329	507.436	507.543	507.649	507.756	507.863	507.969	508.076	508.183	508.289	508.396	508.502	508.609	508.716	508.822	508.929	508.976	509.083	509.189	509.296	509.403	509.51	509.617	509.724	509.831	509.938	510.045	510.152	510.259	510.366	510.472	510.579	510.686	510.793	510.9	511.007	511.114	511.221	511.328	511.435	511.542	511.648	511.755	511.862	511.969	512.076	512.183	512.29	512.397	512.504	512.611	512.717	512.824	512.931	513.038	513.145	513.252	513.359	513.466	513.573	513.68	513.786	513.893	514	514.107	514.214	514.321	514.428	514.535	514.642	514.748	514.855	514.962	515.069	515.176	515.283	515.39	515.497	515.604	515.71	515.817	515.924	516.031	516.138	516.245	516.352	516.459	516.566	516.672	516.779	516.886	516.993	517.1	517.207	517.314	517.421	517.527	517.634	517.741	517.848	517.955	518.062	518.169	518.276	518.382	518.489	518.596	518.703	518.81	518.917	519.024	519.131	519.237	519.344	519.451	519.558	519.665	519.772	519.879	519.985	520.092	520.199	520.306	520.413	520.52	520.627	520.734	520.84	520.947	521.054	521.161	521.268	521.375	521.482	521.588	521.695	521.802	521.909	522.016	522.123	522.229	522.336	522.443	522.55	522.657	522.764	522.871	522.977	523.084	523.191	523.298	523.405	523.512	523.619	523.725	523.832	523.939	524.046	524.153	524.26	524.366	524.473	524.58	524.687	524.794	524.901	525.008	525.114	525.221	525.328	525.435	525.542	525.649	525.755	525.862	525.969	526.076	526.183	526.29	526.396	526.503	526.61	526.717	526.824	526.931	527.037	527.144	527.251	527.358	527.465	527.571	527.678	527.785	527.892	527.999	528.106	528.212	528.319	528.426	528.533	528.64	528.747	528.853	528.96	529.067	529.174	529.281	529.387	529.494	529.601	529.708	529.815	529.922	530.028	530.135	530.242	530.349	530.456	530.562	530.669	530.776	530.883	530.99	531.096	531.203	531.31	531.417	531.524	531.63	531.737	531.844	531.951	532.058	532.164	532.271	532.378	532.485	532.592	532.698	532.805	532.912	533.019	533.126	533.232	533.339	533.446	533.553	533.66	533.766	533.873	533.98	534.087	534.194	534.3	534.407	534.514	534.621	534.727	534.834	534.941	535.048	535.155	535.261	535.368	535.475	535.582	535.689	535.795	535.902	536.009	536.116	536.222	536.329	536.436	536.543	536.65	536.756	536.863	536.97	537.077	537.183	537.29	537.397	537.504	537.61	537.717	537.824	537.931	538.038	538.144	538.251	538.358	538.465	538.571	538.678	538.785	538.892	538.998	539.105	539.212	539.319	539.426	539.532	539.639	539.746	539.853	539.959	540.066	540.173	540.28	540.386	540.493	540.6	540.707	540.813	540.92	541.027	541.134	541.24	541.347	541.454	541.561	541.667	541.774	541.881	541.988	542.094	542.201	542.308	542.415	542.521	542.628	542.735	542.842	542.948	543.055	543.162	543.268	543.375	543.482	543.589	543.695	543.802	543.909	544.016	544.122	544.229	544.336	544.443	544.549	544.656	544.763	544.87	544.976	545.083	545.19	545.296	545.403	545.51	545.617	545.723	545.83	545.937	546.043	546.15	546.257	546.364	546.47	546.577	546.684	546.791	546.897	547.004	547.111	547.217	547.324	547.431	547.538	547.644	547.751	547.858	547.964	548.071	548.178	548.284	548.391	548.498	548.605	548.711	548.818	548.925	549.031	549.138	549.245	549.352	549.458	549.565	549.672	549.778	549.885	549.992	550.098	550.205	550.312	550.419	550.525	550.632	550.739	550.845	550.952	551.059	551.165	551.272	551.379	551.485	551.592	551.699	551.806	551.912	552.019	552.126	552.232	552.339	552.446	552.552	552.659	552.766	552.872	552.979	553.086	553.192	553.299	553.406	553.512	553.619	553.726	553.833	553.939	554.046	554.153	554.259	554.366	554.473	554.579	554.686	554.793	554.899	555.006	555.113	555.219	555.326	555.433	555.539	555.646	555.753	555.859	555.966	556.073	556.179	556.286	556.393	556.499	556.606	556.713	556.819	556.926	557.032	557.139	557.246	557.352	557.459	557.566	557.672	557.779	557.886	557.992	558.099	558.206	558.312	558.419	558.526	558.632	558.739	558.846	558.952	559.059	559.165	559.272	559.379	559.485	559.592	559.699	559.805	559.912	560.019	560.125	560.232	560.339	560.445	560.552	560.658	560.765	560.872	560.978	561.085	561.192	561.298	561.405	561.511	561.618	561.725	561.831	561.938	562.045	562.151	562.258	562.364	562.471	562.578	562.684	562.791	562.898	563.004	563.111	563.217	563.324	563.431	563.537	563.644	563.75	563.857	563.964	564.07	564.177	564.284	564.39	564.497	564.603	564.71	564.817	564.923	565.03	565.136	565.243	565.35	565.456	565.563	565.669	565.776	565.883	565.989	566.096	566.202	566.309	566.416	566.522	566.629	566.735	566.842	566.949	567.055	567.162	567.268	567.375	567.482	567.588	567.695	567.801	567.908	568.014	568.121	568.228	568.334	568.441	568.547	568.654	568.761	568.867	568.974	569.08	569.187	569.293	569.4	569.507	569.613	569.72	569.826	569.933	570.039	570.146	570.253	570.359	570.466	570.572	570.679	570.785	570.892	570.999	571.105	571.212	571.318	571.425	571.531	571.638	571.745	571.851	571.958	572.064	572.171	572.277	572.384	572.49	572.597	572.704	572.81	572.917	573.023	573.13	573.236	573.343	573.449	573.556	573.663	573.769	573.876	573.982	574.089	574.195	574.302	574.408	574.515	574.621	574.728	574.835	574.941	575.048	575.154	575.261	575.367	575.474	575.58	575.687	575.793	575.9	576.006	576.113	576.219	576.326	576.433	576.539	576.646	576.752	576.859	576.965	577.072	577.178	577.285	577.391	577.498	577.604	577.711	577.817	577.924	578.03	578.137	578.243	578.35	578.457	578.563	578.67	578.776	578.883	578.989	579.096	579.202	579.309	579.415	579.522	579.628	579.735	579.841	579.948	580.054	580.161	580.267	580.374	580.48	580.587	580.693	580.8	580.906	581.013	581.119	581.226	581.332	581.439	581.545	581.652	581.758	581.865	581.971	582.078	582.184	582.291	582.397	582.504	582.61	582.717	582.823	582.93	583.036	583.143	583.249	583.355	583.462	583.568	583.675	583.781	583.888	583.994	584.101	584.207	584.314	584.42	584.527	584.633	584.74	584.846	584.953	585.059	585.166	585.272	585.379	585.485	585.591	585.698	585.804	585.911	586.017	586.124	586.23	586.337	586.443	586.55	586.656	586.763	586.869	586.975	587.082	587.188	587.295	587.401	587.508	587.614	587.721	587.827	587.934	588.04	588.146	588.253	588.359	588.466	588.572	588.679	588.785	588.892	588.998	589.104	589.211	589.317	589.424	589.53	589.637	589.743	589.85	589.956	590.062	590.169	590.275	590.382	590.488	590.595	590.701	590.807	590.914	591.02	591.127	591.233	591.34	591.446	591.552	591.659	591.765	591.872	591.978	592.085	592.191	592.297	592.404	592.51	592.617	592.723	592.829	592.936	593.042	593.149	593.255	593.362	593.468	593.574	593.681	593.787	593.894	594	594.106	594.213	594.319	594.426	594.532	594.638	594.745	594.851	594.958	595.064	595.17	595.277	595.383	595.49	595.596	595.702	595.809	595.915	596.022	596.128	596.234	596.341	596.447	596.554	596.66	596.766	596.873	596.979	597.085	597.192	597.298	597.405	597.511	597.617	597.724	597.83	597.936	598.043	598.149	598.256	598.362	598.468	598.575	598.681	598.787	598.894	599	599.107	599.213	599.319	599.426	599.532	599.638	599.745	599.851	599.958
